#
#Physica B 385<96>386 (2006) 150<96>152
#S.L. Chaplota,^B, L. Pintschoviusb,c, R. Mittal
#100 delat1
0.0865385	1.14128
0.144231	1.51142
0.177885	2.43678
0.197115	2.591
0.197115	2.9303
0.221154	3.36214
0.240385	3.57805
0.264423	3.67059
0.298077	3.63974
0.298077	4.34919
0.346154	4.2875
0.336538	4.62679
0.379808	4.65764
0.394231	4.9044
0.360577	5.21285
0.399038	5.33624
0.504808	5.49046
0.600962	5.45962
0.730769	5.52131
0.990385	5.70638
0.899038	6.26159
0.802885	6.26159
0.697115	6.38498
0.600962	6.13821
0	6.1999
0.495192	6.16906
0.600962	6.66258
0.807692	6.81681
0.985577	6.26159
0.995192	8.05062
0.802885	8.26654
0.605769	8.76006
0.399038	9.65458
0.528846	9.28443
0.403846	10.1789
0.216346	10.2715
0.201923	10.6108
0.144231	10.765
0.139423	11.0426
0.0865385	11.166
0.0288462	11.3202
0.0336538	11.6904
0.110577	11.7829
0.206731	11.4744
0.201923	11.3819
0.25	11.3202
0.283654	10.7342
0.394231	10.7342
0.418269	11.0118
0.5	11.3511
0.552885	10.4566
0.600962	10.5799
0.634615	10.4874
0.793269	10.3023
0.802885	10.6108
0.875	10.6725
0.908654	10.4566
0.990385	10.4874
0.995192	10.8884
0.951923	11.1043
0.865385	11.3511
0.798077	11.1043
0.701923	10.9501
0.697115	11.0426
0.504808	11.3511
0.00480769	13.2943
0.201923	13.5102
0.230769	13.6953
0.264423	13.6953
0.341346	14.4356
0.504808	14.559
0.528846	15.0217
0.745192	15.2684
0.774038	15.546
0.884615	15.9779
0.951923	16.4714
0.995192	15.7003
0.802885	15.9162
0.504808	15.5769
0.298077	14.5281
0.990385	17.4584
0.990385	19.0932
0.798077	18.7848
0.504808	19.4325
0.293269	19.2166
0.197115	19.1549


#delta 2
0	4.27027
0.196172	4.42499
0.392344	5.16765
0.497608	5.47709
0.598086	5.84842
0.69378	6.00314
0.799043	6.31258
0.985646	6.21974
0.990431	7.85978
0.990431	8.04544
0.698565	6.80768
0.598086	6.90051
0.803828	7.51939
0.698565	7.55034
0.598086	7.4575
0.392344	6.4673
0.392344	6.77674
0.200957	6.31258
0.00478469	6.09597
0	6.6839
0.191388	6.83862
0.990431	9.40698
0.741627	9.84019
0.497608	10.0877
0.258373	10.7995
0.00956938	10.8304
0.746411	10.6757
0.995215	10.8923
0.497608	11.4493
0.397129	11.7587
0.200957	12.0682
0.00956938	12.3157
0	16.6169
0.497608	16.8954
0.741627	17.0811
0.990431	17.2977


0.200957	1.35719
0.30622	1.9741
0.30622	2.56016
0.37799	2.68354
0.397129	2.71439
0.473684	2.80692
0.526316	3.11537
0.502392	3.30045
0.602871	3.85566
0.583732	4.2875
0.712919	4.41088
0.784689	4.41088
0.77512	4.13327
0.803828	4.19496
0.818182	3.88651
0.861244	3.97904
0.894737	3.54721
0.933014	3.76313
1	3.2696
1	7.71132
0.799043	7.40287
0.698565	7.24864
0.602871	6.60089
0.602871	6.90935
0.492823	6.78596
0.425837	6.63174
0.397129	6.32329
0.248804	6.35413
0.205742	5.95314
0.00956938	5.86061
0.00956938	6.10737
0.200957	6.35413
0.00478469	6.72427
0.205742	6.78596
0.392344	7.18695
0.492823	7.40287
0.598086	7.52625
0.913876	7.95809
0.995215	8.01978
1	10.6108
0.799043	10.2098
0.607656	10.1481
0.401914	10.2406
0.0143541	10.7342
0.196172	11.0426
0.602871	11.1043
0.799043	11.3511
0.995215	12.9242
0.794258	13.5102
0.698565	13.6028
0.492823	14.3431
0.30622	15.6077
0.00478469	16.4097
0.296651	15.947
0.502392	15.6386
0.698565	15.947
0.803828	15.8853
1.00478	15.7003
1	19.1241
0.799043	18.6614
0.698565	18.7539
0.497608	18.7231
0.296651	18.6922
0.00478469	18.7231


#delta 4
0.201923	1.11043
0.403846	1.81987
0.504808	2.40593
0.605769	2.62185
0.586538	2.80692
0.711538	2.96115
0.802885	3.08453
0.8125	3.14622
0.942308	3.23876
0.995192	3.2696
0.697115	7.68048
0.990385	8.11231
0.990385	7.98893
0.802885	8.35907
0.495192	7.80386
0.519231	7.95809
0.591346	8.26654
0.663462	8.5133
0.639423	8.79091
0.600962	8.91429
0.600962	8.60584
0.802885	9.00683
0.802885	9.34612
0.927885	9.28443
0.9375	9.1919
0.4375	8.35907
0.365385	7.98893
0.307692	7.92724
0.326923	8.38992
0.399038	8.63668
0.201923	8.54415
0.192308	8.23569
0.221154	8.08147
0.139423	8.05062
0.120192	7.86555
0.0336538	7.8964
0.0384615	8.174
0.00961538	8.60584
0	11.6595
0.201923	11.5053
0.615385	10.2715
0.658654	10.7033
0.759615	10.8884
0.802885	10.7342
0.908654	10.765
1	10.8575
0.596154	11.0735
0.495192	11.2894
0.394231	11.3819
0.00480769	12.9859
0.201923	13.2018
0.403846	13.0167
0.596154	13.2943
0.798077	13.2635
1	12.8933


#001
#delta 1
0.101942	1.71842
0.150485	2.40578
0.194175	2.71822
0.305825	4.4054
0.34466	5.21774
0.402913	5.78013
0.441748	6.62372
0.5	7.12362
0.592233	7.68601
0.699029	7.31108
0.805825	6.43625
0.902913	5.62391
1.00971	5.28023
1	10.3417
0.985437	10.123
0.941748	10.123
0.864078	10.0918
0.839806	10.1855
0.805825	10.248
0.791262	10.7792
0.776699	10.7167
0.723301	10.9979
0.631068	10.7167
0.597087	10.6854
0.563107	11.2791
0.5	11.779
0.451456	12.7163
0.199029	13.1537
0.131068	12.9662
0.0970874	13.2162
0.0436893	12.7788
0.00485437	12.9975
0.00485437	13.8098
0.0970874	13.8723
0.203883	14.0285
0.407767	14.0598
0.597087	14.3097
0.800971	15.0283
1.00485	15.7469
1	19.09
0.786408	19.0276
0.597087	18.9963
0.393204	19.0276
0.194175	19.09
0.00485437	19.1213


#delta 2
0	6.37376
0.131068	6.43625
0.135922	6.59247
0.31068	6.65496
0.42233	6.40501
0.558252	6.37376
0.601942	6.1863
0.660194	5.96759
0.805825	5.18649
0.907767	4.99903
1.00485	5.28023
0.951456	5.74889
0.956311	9.40443
1	10.5292
0.864078	9.5294
0.825243	9.0295
0.699029	9.15447
0.514563	8.99826
0.436893	9.18572
0.432039	10.4355
0.339806	10.7167
0.247573	10.9979
0.140777	11.3103
0.0291262	11.5915
0.00970874	11.654
0	16.7468
0.135922	16.6218
0.34466	16.3093
0.417476	16.2781
0.490291	16.3718
0.640777	16.3718
0.762136	16.0594
0.805825	16.0281
0.854369	15.7782
1.00485	15.7157
0.966019	16.0906
1.00485	19.09
0	19.2463


#delta 3
0.00480769	4.28735
0.00480769	7.91751
0.00480769	8.13657
0	12.33
1	7.9801
1	9.45094


#delta 4
0.208738	1.46847
0.194175	1.59344
0.228155	1.99961
0.305825	2.15583
0.339806	2.562
0.349515	2.99942
0.407767	3.06191
0.436893	3.09315
0.504854	3.56181
0.601942	3.87425
1	3.28061
1.00485	5.99884
1	6.34252
0.902913	5.90511
0.800971	5.62391
0.699029	5.12401
0.606796	4.6241
0.548544	5.28023
0.42233	5.46769
0.398058	5.78013
0.451456	5.84262
0.42233	5.96759
0.296117	5.78013
0.252427	6.12381
0.203883	5.81137
0.194175	5.81137
0.0970874	5.87386
0.00485437	5.96759
0	6.09257
0.0339806	6.37376
0.121359	6.40501
0.00485437	6.74869
0.495146	6.09257
0.548544	6.09257
0.626214	6.24879
0.606796	6.4675
0.703883	6.84242
0.708738	7.18611
0.81068	7.34233
0.713592	7.81099
0.830097	7.93596
0.84466	8.06094
0.902913	7.81099
0.956311	7.87347
1.00485	7.87347
1.00485	8.09218
0	8.68582
0.00485437	10.9041
1	10.8729
0	11.6227
-0.00485437	13.06
1	12.9662
1	17.0279
0.805825	16.653
0.606796	16.0906
0.402913	16.1219
0.194175	16.4343
0	16.4343


#Raman from
#Title: Phonon dispersion relations, phase transitions, and thermodynamic properties of ZrSiO4: Inelastic neutron scattering experiments, shell model, and first-principles calculations 
#Author(s): Chaplot, SL; Pintschovius, L; Choudhury, N, et al.
#Source: PHYSICAL REVIEW B   Volume: 73   Issue: 9   Article Number: 094308   Published: MAR 2006 
#Times Cited: 8 
0 13.1781
0 29.2336
0 6.43188
0 11.7998
0 30.2492
0 7.9794
0 6.02082
0 6.74622
0 10.7117
0 30.2492
0 14.4113
0 18.2317
0 33.2475


0 14.3387
0 19.2715
0 33.0057
0 10.1798
0 18.1834
0 29.3062
0 10.615
0 12.5011
0 14.0486
0 31.0229
0 8.43882
0 11.4371
0 12.8638
0 26.1386

